 DDSCAT --- DDSCAT 7.2.2 [12.06.05]   
 TARGET --- Rectangular prism; NX,NY,NZ=  16  32  32                          
 PBCGS2 --- method of solution 
 GKDLDR --- prescription for polarizabilies
 RCTGLPRSM --- shape 
   16384     = NAT0 = number of dipoles
  0.06346820 = d/aeff for this target [d=dipole spacing]
    0.015625 = d (physical units)
  AEFF=      0.246186 = effective radius (physical units)
  WAVE=      0.500000 = wavelength (in vacuo, physical units)
K*AEFF=      3.093665 = 2*pi*aeff/lambda
NAMBIENT=    1.000000 = refractive index of ambient medium
n= ( 0.9656 ,  1.8628),  eps.= ( -2.5374 ,  3.5975)  |m|kd=  0.4120 for subs. 1
   TOL= 1.000E-05 = error tolerance for CCG method
( 1.00000  0.00000  0.00000) = target axis A1 in Target Frame
( 0.00000  1.00000  0.00000) = target axis A2 in Target Frame
  NAVG=   962 = (theta,phi) values used in comp. of Qsca,g
( 0.19635  0.00000  0.00000) = k vector (latt. units) in Lab Frame
( 0.00000, 0.00000)( 1.00000, 0.00000)( 0.00000, 0.00000)=inc.pol.vec. 1 in LF
( 0.00000, 0.00000)(-0.00000, 0.00000)( 1.00000,-0.00000)=inc.pol.vec. 2 in LF
   0.000   0.000 = beta_min, beta_max ;  NBETA = 1
   0.000   0.000 = theta_min, theta_max; NTHETA= 1
   0.000   0.000 = phi_min, phi_max   ;   NPHI = 1

 0.5000 = ETASCA = param. controlling # of scatt. dirs used to calculate <cos> etc.
 Results averaged over    1 target orientations
                   and    2 incident polarizations
          Qext       Qabs       Qsca      g(1)=<cos>  <cos^2>     Qbk       Qpha
 JO=1:  3.6135E+00 1.4308E+00 2.1827E+00  4.1463E-01 7.5169E-01 6.1831E-01 -1.2614E-01
 JO=2:  3.6135E+00 1.4308E+00 2.1827E+00  4.1463E-01 7.5169E-01 6.1831E-01 -1.2614E-01
 mean:  3.6135E+00 1.4308E+00 2.1827E+00  4.1463E-01 7.5169E-01 6.1831E-01 -1.2614E-01
 Qpol= -1.6212E-05                                                  dQpha=  1.2815E-06
         Qsca*g(1)   Qsca*g(2)   Qsca*g(3)   iter  mxiter  Nsca
 JO=1:  9.0502E-01 -1.0545E-08  1.6702E-06     18    300    962
 JO=2:  9.0503E-01  7.8238E-07  9.9115E-08     18    300    962
 mean:  9.0503E-01  3.8592E-07  8.8467E-07
            Mueller matrix elements for selected scattering directions in Lab Frame   
 theta    phi    Pol.    S_11        S_12        S_21       S_22       S_31       S_41
  0.00  90.00  0.00000  7.5116E+01  3.4332E-04  3.433E-04  7.512E+01 -1.684E-05 -2.006E-05
  5.00  90.00  0.00768  7.2167E+01 -5.5393E-01 -5.539E-01  7.217E+01 -1.197E-05 -2.189E-05
 10.00  90.00  0.03116  6.3969E+01 -1.9931E+00 -1.993E+00  6.397E+01 -8.246E-06 -2.324E-05
 15.00  90.00  0.07180  5.2244E+01 -3.7512E+00 -3.751E+00  5.224E+01 -6.331E-06 -2.324E-05
 20.00  90.00  0.13159  3.9245E+01 -5.1643E+00 -5.164E+00  3.924E+01 -4.255E-06 -2.399E-05
 25.00  90.00  0.21216  2.7088E+01 -5.7470E+00 -5.747E+00  2.709E+01 -5.334E-06 -2.284E-05
 30.00  90.00  0.31112  1.7234E+01 -5.3617E+00 -5.362E+00  1.723E+01 -6.880E-06 -1.996E-05
 35.00  90.00  0.41156  1.0271E+01 -4.2270E+00 -4.227E+00  1.027E+01 -8.107E-06 -1.574E-05
 40.00  90.00  0.46175  6.0116E+00 -2.7759E+00 -2.776E+00  6.012E+00 -9.203E-06 -1.013E-05
 45.00  90.00  0.38394  3.7970E+00 -1.4578E+00 -1.458E+00  3.797E+00 -9.888E-06 -4.811E-06
 50.00  90.00  0.20311  2.8383E+00 -5.7649E-01 -5.765E-01  2.838E+00 -9.308E-06  3.240E-07
 55.00  90.00  0.08917  2.4760E+00 -2.2079E-01 -2.208E-01  2.476E+00 -8.166E-06  4.035E-06
 60.00  90.00  0.12807  2.2937E+00 -2.9376E-01 -2.938E-01  2.294E+00 -6.384E-06  6.306E-06
 65.00  90.00  0.28428  2.1074E+00 -5.9909E-01 -5.991E-01  2.107E+00 -4.268E-06  7.107E-06
 70.00  90.00  0.49621  1.8862E+00 -9.3596E-01 -9.360E-01  1.886E+00 -2.436E-06  6.427E-06
 75.00  90.00  0.70066  1.6630E+00 -1.1652E+00 -1.165E+00  1.663E+00 -3.272E-07  5.216E-06
 80.00  90.00  0.83815  1.4711E+00 -1.2330E+00 -1.233E+00  1.471E+00  9.558E-07  3.079E-06
 85.00  90.00  0.87905  1.3178E+00 -1.1584E+00 -1.158E+00  1.318E+00  2.132E-06  1.234E-06
 90.00  90.00  0.84389  1.1878E+00 -1.0024E+00 -1.002E+00  1.188E+00  2.850E-06 -3.377E-07
 95.00  90.00  0.78582  1.0596E+00 -8.3269E-01 -8.327E-01  1.060E+00  3.393E-06 -1.197E-06
100.00  90.00  0.75673  9.2364E-01 -6.9895E-01 -6.989E-01  9.236E-01  3.439E-06 -1.451E-06
105.00  90.00  0.78540  7.9129E-01 -6.2148E-01 -6.215E-01  7.913E-01  3.335E-06 -1.274E-06
110.00  90.00  0.85741  6.9404E-01 -5.9507E-01 -5.951E-01  6.940E-01  2.831E-06 -5.556E-07
115.00  90.00  0.89355  6.7419E-01 -6.0242E-01 -6.024E-01  6.742E-01  1.894E-06  1.382E-07
120.00  90.00  0.81395  7.7423E-01 -6.3018E-01 -6.302E-01  7.742E-01  8.510E-07  5.569E-07
125.00  90.00  0.65812  1.0320E+00 -6.7920E-01 -6.792E-01  1.032E+00 -1.915E-07  3.331E-07
130.00  90.00  0.51335  1.4856E+00 -7.6265E-01 -7.627E-01  1.486E+00 -1.325E-06 -9.797E-07
135.00  90.00  0.40829  2.1850E+00 -8.9213E-01 -8.921E-01  2.185E+00 -1.806E-06 -3.243E-06
140.00  90.00  0.33090  3.2005E+00 -1.0590E+00 -1.059E+00  3.200E+00 -1.565E-06 -6.643E-06
145.00  90.00  0.26513  4.6140E+00 -1.2233E+00 -1.223E+00  4.614E+00 -4.232E-07 -1.083E-05
150.00  90.00  0.20351  6.4859E+00 -1.3199E+00 -1.320E+00  6.486E+00  1.472E-06 -1.521E-05
155.00  90.00  0.14592  8.8035E+00 -1.2846E+00 -1.285E+00  8.804E+00  4.083E-06 -1.929E-05
160.00  90.00  0.09522  1.1432E+01 -1.0885E+00 -1.089E+00  1.143E+01  7.012E-06 -2.267E-05
165.00  90.00  0.05409  1.4098E+01 -7.6255E-01 -7.625E-01  1.410E+01  9.870E-06 -2.482E-05
170.00  90.00  0.02413  1.6425E+01 -3.9640E-01 -3.964E-01  1.642E+01  1.170E-05 -2.564E-05
175.00  90.00  0.00604  1.8022E+01 -1.0878E-01 -1.088E-01  1.802E+01  1.297E-05 -2.511E-05
180.00  90.00  0.00000  1.8591E+01  6.6757E-06  6.676E-06  1.859E+01  1.306E-05 -2.314E-05
  0.00   0.00  0.00000  7.5116E+01 -3.4332E-04 -3.433E-04  7.512E+01  1.646E-05 -2.014E-05
  5.00   0.00  0.00767  7.2167E+01 -5.5379E-01 -5.538E-01  7.217E+01  2.144E-05 -2.652E-05
 10.00   0.00  0.03116  6.3969E+01 -1.9930E+00 -1.993E+00  6.397E+01  1.671E-05 -2.987E-05
 15.00   0.00  0.07180  5.2244E+01 -3.7511E+00 -3.751E+00  5.224E+01  1.157E-05 -2.730E-05
 20.00   0.00  0.13159  3.9245E+01 -5.1644E+00 -5.164E+00  3.924E+01  1.071E-05 -2.388E-05
 25.00   0.00  0.21216  2.7088E+01 -5.7468E+00 -5.747E+00  2.709E+01  3.899E-06 -2.209E-05
 30.00   0.00  0.31112  1.7234E+01 -5.3617E+00 -5.362E+00  1.723E+01 -2.601E-06 -1.699E-05
 35.00   0.00  0.41156  1.0271E+01 -4.2270E+00 -4.227E+00  1.027E+01 -9.214E-06 -8.885E-06
 40.00   0.00  0.46174  6.0116E+00 -2.7758E+00 -2.776E+00  6.012E+00 -6.118E-06 -2.172E-06
 45.00   0.00  0.38394  3.7970E+00 -1.4578E+00 -1.458E+00  3.797E+00 -4.036E-06  4.128E-06
 50.00   0.00  0.20310  2.8383E+00 -5.7646E-01 -5.765E-01  2.838E+00 -2.672E-06  5.365E-06
 55.00   0.00  0.08917  2.4759E+00 -2.2078E-01 -2.208E-01  2.476E+00  5.591E-07  8.121E-06
 60.00   0.00  0.12808  2.2936E+00 -2.9378E-01 -2.938E-01  2.294E+00  2.431E-06  5.917E-06
 65.00   0.00  0.28428  2.1074E+00 -5.9909E-01 -5.991E-01  2.107E+00  3.713E-06  4.879E-06
 70.00   0.00  0.49621  1.8862E+00 -9.3596E-01 -9.360E-01  1.886E+00  3.450E-06  2.293E-06
 75.00   0.00  0.70066  1.6630E+00 -1.1652E+00 -1.165E+00  1.663E+00  2.256E-06 -8.710E-08
 80.00   0.00  0.83815  1.4710E+00 -1.2329E+00 -1.233E+00  1.471E+00  6.514E-07 -2.454E-06
 85.00   0.00  0.87905  1.3178E+00 -1.1584E+00 -1.158E+00  1.318E+00 -1.140E-06 -5.076E-06
 90.00   0.00  0.84389  1.1878E+00 -1.0024E+00 -1.002E+00  1.188E+00 -2.002E-06 -5.869E-06
 95.00   0.00  0.78583  1.0596E+00 -8.3269E-01 -8.327E-01  1.060E+00 -2.891E-06 -5.748E-06
100.00   0.00  0.75672  9.2363E-01 -6.9893E-01 -6.989E-01  9.236E-01 -3.273E-06 -5.733E-06
105.00   0.00  0.78541  7.9129E-01 -6.2148E-01 -6.215E-01  7.913E-01 -2.024E-06 -5.173E-06
110.00   0.00  0.85741  6.9404E-01 -5.9508E-01 -5.951E-01  6.940E-01 -2.024E-06 -3.602E-06
115.00   0.00  0.89355  6.7418E-01 -6.0241E-01 -6.024E-01  6.742E-01 -1.721E-06 -1.486E-06
120.00   0.00  0.81394  7.7423E-01 -6.3018E-01 -6.302E-01  7.742E-01 -2.085E-06  2.260E-07
125.00   0.00  0.65812  1.0320E+00 -6.7920E-01 -6.792E-01  1.032E+00 -4.323E-06  1.730E-06
130.00   0.00  0.51335  1.4856E+00 -7.6265E-01 -7.626E-01  1.486E+00 -6.718E-06  2.036E-06
135.00   0.00  0.40829  2.1850E+00 -8.9212E-01 -8.921E-01  2.185E+00 -1.137E-05  5.771E-07
140.00   0.00  0.33090  3.2005E+00 -1.0590E+00 -1.059E+00  3.200E+00 -1.503E-05 -1.547E-06
145.00   0.00  0.26513  4.6140E+00 -1.2233E+00 -1.223E+00  4.614E+00 -1.816E-05 -4.383E-06
150.00   0.00  0.20350  6.4859E+00 -1.3199E+00 -1.320E+00  6.486E+00 -2.190E-05 -1.103E-05
155.00   0.00  0.14592  8.8035E+00 -1.2846E+00 -1.285E+00  8.804E+00 -2.160E-05 -1.618E-05
160.00   0.00  0.09522  1.1432E+01 -1.0885E+00 -1.089E+00  1.143E+01 -2.127E-05 -2.234E-05
165.00   0.00  0.05409  1.4098E+01 -7.6256E-01 -7.626E-01  1.410E+01 -1.767E-05 -2.598E-05
170.00   0.00  0.02413  1.6425E+01 -3.9637E-01 -3.964E-01  1.642E+01 -1.672E-05 -2.725E-05
175.00   0.00  0.00604  1.8022E+01 -1.0884E-01 -1.088E-01  1.802E+01 -1.427E-05 -2.625E-05
180.00   0.00  0.00000  1.8591E+01 -5.7220E-06 -5.722E-06  1.859E+01 -1.300E-05 -2.317E-05
